	
	Sensitivity=10 mV/nA,, Reserve=Normal,, Time Constant=100ms,, Low Pass Filter=24 dB/oct	
	Daten erstellt am: 	2018_10_11	
	***End of Header***
Stepwith 	Channel X LIA [V] 	Channel Y LIA [V] 	Amplitude LIA [V] 	Phase [°] 	Frequency [Hz] 	Temp Sensor 1 	Temp Sensor 2 	Current I [A]	Voltage over Resistance for Current [V] 
-1.000000E+2	5.043107E-3	5.970135E-4	5.078322E-3	6.751371E+0	1.000010E+5	3.301480E+2	2.879410E+2	-4.972869E-2	-4.736066E-4
-2.000000E+2	5.041645E-3	5.957890E-4	5.076726E-3	6.739588E+0	1.000010E+5	3.301480E+2	2.879370E+2	0.000000E+0	
-3.000000E+2	5.040762E-3	5.970062E-4	5.075992E-3	6.754401E+0	1.000010E+5	3.301480E+2	2.879340E+2	0.000000E+0	
-4.000000E+2	5.041651E-3	6.005423E-4	5.077292E-3	6.792849E+0	1.000010E+5	3.301480E+2	2.879330E+2	0.000000E+0	
-5.000000E+2	5.039876E-3	6.027359E-4	5.075790E-3	6.819806E+0	1.000010E+5	3.301480E+2	2.879380E+2	0.000000E+0	
-6.000000E+2	5.038997E-3	6.048912E-4	5.075173E-3	6.845146E+0	1.000010E+5	3.301480E+2	2.879400E+2	0.000000E+0	
-7.000000E+2	5.039047E-3	6.070981E-4	5.075487E-3	6.869813E+0	1.000010E+5	3.301480E+2	2.879320E+2	0.000000E+0	
-8.000000E+2	5.038546E-3	6.070930E-4	5.074988E-3	6.870432E+0	1.000010E+5	3.301480E+2	2.879290E+2	0.000000E+0	
-9.000000E+2	5.037669E-3	6.053385E-4	5.073908E-3	6.851948E+0	1.000010E+5	3.301480E+2	2.879330E+2	0.000000E+0	
-1.000000E+3	5.039435E-3	6.062272E-4	5.075768E-3	6.859528E+0	1.000010E+5	3.301480E+2	2.879290E+2	0.000000E+0	
-1.100000E+3	5.038729E-3	6.048962E-4	5.074908E-3	6.845561E+0	1.000010E+5	3.301480E+2	2.879320E+2	0.000000E+0	
-1.200000E+3	5.039434E-3	6.025071E-4	5.075324E-3	6.817834E+0	1.000010E+5	3.301480E+2	2.879300E+2	0.000000E+0	
-1.300000E+3	5.039878E-3	6.005339E-4	5.075531E-3	6.795122E+0	1.000010E+5	3.301480E+2	2.879330E+2	0.000000E+0	
-1.400000E+3	5.041171E-3	5.978937E-4	5.076503E-3	6.763806E+0	1.000010E+5	3.301480E+2	2.879190E+2	0.000000E+0	
-1.500000E+3	5.040535E-3	5.966734E-4	5.075728E-3	6.750972E+0	1.000010E+5	3.301480E+2	2.879240E+2	0.000000E+0	
-1.600000E+3	5.040917E-3	5.944715E-4	5.075848E-3	6.725784E+0	1.000010E+5	3.301480E+2	2.879410E+2	0.000000E+0	
-1.700000E+3	5.040308E-3	5.935898E-4	5.075141E-3	6.716703E+0	1.000010E+5	3.301480E+2	2.879370E+2	0.000000E+0	
-1.800000E+3	5.041635E-3	5.918130E-4	5.076251E-3	6.695034E+0	1.000010E+5	3.301480E+2	2.879460E+2	0.000000E+0	
-1.900000E+3	5.040760E-3	5.918005E-4	5.075381E-3	6.696046E+0	1.000010E+5	3.301480E+2	2.879350E+2	0.000000E+0	
-2.000000E+3	5.042521E-3	5.904894E-4	5.076977E-3	6.679032E+0	1.000010E+5	3.301480E+2	2.879330E+2	0.000000E+0	
-2.100000E+3	5.040754E-3	5.913748E-4	5.075325E-3	6.691281E+0	1.000010E+5	3.301480E+2	2.879290E+2	0.000000E+0	
-2.200000E+3	5.042054E-3	5.892112E-4	5.076365E-3	6.665317E+0	1.000010E+5	3.301480E+2	2.879260E+2	0.000000E+0	
-2.300000E+3	5.042058E-3	5.887704E-4	5.076317E-3	6.660370E+0	1.000010E+5	3.301480E+2	2.879250E+2	0.000000E+0	
-2.400000E+3	5.042384E-3	5.896427E-4	5.076742E-3	6.669723E+0	1.000010E+5	3.301480E+2	2.879340E+2	0.000000E+0	
-2.500000E+3	5.041623E-3	5.926895E-4	5.076341E-3	6.704875E+0	1.000010E+5	3.301480E+2	2.879300E+2	0.000000E+0	
-2.600000E+3	5.041177E-3	5.962149E-4	5.076311E-3	6.744981E+0	1.000010E+5	3.301480E+2	2.879430E+2	0.000000E+0	
-2.700000E+3	5.040297E-3	6.005243E-4	5.075945E-3	6.794455E+0	1.000010E+5	3.301480E+2	2.879360E+2	0.000000E+0	
-2.800000E+3	5.040296E-3	6.048946E-4	5.076464E-3	6.843435E+0	1.000010E+5	3.301480E+2	2.879420E+2	0.000000E+0	
-2.900000E+3	5.039913E-3	6.113024E-4	5.076850E-3	6.915753E+0	1.000010E+5	3.301480E+2	2.879420E+2	0.000000E+0	
-3.000000E+3	5.039411E-3	6.174800E-4	5.077100E-3	6.985641E+0	1.000010E+5	3.301480E+2	2.879410E+2	0.000000E+0	
-3.100000E+3	5.038532E-3	6.249505E-4	5.077142E-3	7.070527E+0	1.000010E+5	3.301480E+2	2.879420E+2	0.000000E+0	
-3.200000E+3	5.039381E-3	6.315213E-4	5.078797E-3	7.142913E+0	1.000010E+5	3.301480E+2	2.879470E+2	0.000000E+0	
-3.300000E+3	5.039418E-3	6.392493E-4	5.079801E-3	7.229349E+0	1.000010E+5	3.301480E+2	2.879340E+2	0.000000E+0	
-3.400000E+3	5.039874E-3	6.445430E-4	5.080922E-3	7.287923E+0	1.000010E+5	3.301480E+2	2.879410E+2	0.000000E+0	
-3.500000E+3	5.040306E-3	6.536884E-4	5.082518E-3	7.389570E+0	1.000010E+5	3.301480E+2	2.879330E+2	0.000000E+0	
-3.600000E+3	5.039856E-3	6.613575E-4	5.083064E-3	7.475948E+0	1.000010E+5	3.301480E+2	2.879350E+2	0.000000E+0	
-3.700000E+3	5.040281E-3	6.684178E-4	5.084409E-3	7.554212E+0	1.000010E+5	3.301480E+2	2.879310E+2	0.000000E+0	
-3.800000E+3	5.039405E-3	6.733153E-4	5.084187E-3	7.610222E+0	1.000010E+5	3.301480E+2	2.879350E+2	0.000000E+0	
-3.900000E+3	5.040290E-3	6.798547E-4	5.085934E-3	7.681922E+0	1.000010E+5	3.301480E+2	2.879360E+2	0.000000E+0	
-4.000000E+3	5.039871E-3	6.829470E-4	5.085933E-3	7.717078E+0	1.000010E+5	3.301480E+2	2.879240E+2	0.000000E+0	
-4.100000E+3	5.038982E-3	6.860361E-4	5.085468E-3	7.752911E+0	1.000010E+5	3.301480E+2	2.879350E+2	0.000000E+0	
-4.200000E+3	5.039869E-3	6.882211E-4	5.086642E-3	7.775950E+0	1.000010E+5	3.301480E+2	2.879360E+2	0.000000E+0	
-4.300000E+3	5.038985E-3	6.904254E-4	5.086065E-3	7.801900E+0	1.000010E+5	3.301480E+2	2.879400E+2	0.000000E+0	
-4.400000E+3	5.037219E-3	6.913099E-4	5.084436E-3	7.814477E+0	1.000010E+5	3.301480E+2	2.879360E+2	0.000000E+0	
-4.500000E+3	5.036782E-3	6.908679E-4	5.083942E-3	7.810212E+0	1.000010E+5	3.301480E+2	2.879490E+2	0.000000E+0	
-4.600000E+3	5.036766E-3	6.886468E-4	5.083625E-3	7.785436E+0	1.000010E+5	3.301480E+2	2.879470E+2	0.000000E+0	
-4.700000E+3	5.036770E-3	6.807464E-4	5.082566E-3	7.697189E+0	1.000010E+5	3.301480E+2	2.879410E+2	0.000000E+0	
-4.800000E+3	5.036772E-3	6.741263E-4	5.081685E-3	7.623217E+0	1.000010E+5	3.301480E+2	2.879390E+2	0.000000E+0	
-4.900000E+3	5.036783E-3	6.637866E-4	5.080334E-3	7.507620E+0	1.000010E+5	3.301480E+2	2.879380E+2	0.000000E+0	
-5.000000E+3	5.036768E-3	6.541056E-4	5.079064E-3	7.399369E+0	1.000010E+5	3.301480E+2	2.879340E+2	0.000000E+0	
-5.100000E+3	5.036508E-3	6.427912E-4	5.077361E-3	7.273132E+0	1.000010E+5	3.301480E+2	2.879340E+2	0.000000E+0	
-5.200000E+3	5.037658E-3	6.328479E-4	5.077253E-3	7.160184E+0	1.000010E+5	3.301480E+2	2.879420E+2	0.000000E+0	
-5.300000E+3	5.036783E-3	6.240354E-4	5.075293E-3	7.062705E+0	1.000010E+5	3.301480E+2	2.879350E+2	0.000000E+0	
-5.400000E+3	5.038523E-3	6.170238E-4	5.076163E-3	6.981749E+0	1.000010E+5	3.301480E+2	2.879400E+2	0.000000E+0	
-5.500000E+3	5.038103E-3	6.097435E-4	5.074867E-3	6.900740E+0	1.000010E+5	3.301480E+2	2.879430E+2	0.000000E+0	
-5.600000E+3	5.038982E-3	6.036115E-4	5.075006E-3	6.830821E+0	1.000010E+5	3.301480E+2	2.879480E+2	0.000000E+0	
-5.700000E+3	5.038109E-3	5.969884E-4	5.073356E-3	6.757726E+0	1.000010E+5	3.301480E+2	2.879400E+2	0.000000E+0	
-5.800000E+3	5.038112E-3	5.917985E-4	5.072750E-3	6.699511E+0	1.000010E+5	3.301480E+2	2.879460E+2	0.000000E+0	
-5.900000E+3	5.038541E-3	5.852232E-4	5.072413E-3	6.625181E+0	1.000010E+5	3.301480E+2	2.879390E+2	0.000000E+0	
-6.000000E+3	5.039420E-3	5.783843E-4	5.072502E-3	6.547304E+0	1.000010E+5	3.301480E+2	2.879340E+2	0.000000E+0	
-6.100000E+3	5.039853E-3	5.696102E-4	5.071940E-3	6.448274E+0	1.000010E+5	3.301480E+2	2.879400E+2	0.000000E+0	
-6.200000E+3	5.038530E-3	5.634144E-4	5.069933E-3	6.380376E+0	1.000010E+5	3.301480E+2	2.879280E+2	0.000000E+0	
-6.300000E+3	5.039465E-3	5.530921E-4	5.069725E-3	6.263267E+0	1.000010E+5	3.301480E+2	2.879370E+2	0.000000E+0	
-6.400000E+3	5.038993E-3	5.438338E-4	5.068255E-3	6.159810E+0	1.000010E+5	3.301480E+2	2.879430E+2	0.000000E+0	
-6.500000E+3	5.038098E-3	5.359761E-4	5.066528E-3	6.072548E+0	1.000010E+5	3.301480E+2	2.879250E+2	0.000000E+0	
-6.600000E+3	5.036770E-3	5.289623E-4	5.064470E-3	5.995234E+0	1.000010E+5	3.301480E+2	2.879430E+2	0.000000E+0	
-6.700000E+3	5.037021E-3	5.216576E-4	5.063961E-3	5.912742E+0	1.000010E+5	3.301480E+2	2.879350E+2	0.000000E+0	
-6.800000E+3	5.037227E-3	5.168432E-4	5.063673E-3	5.858316E+0	1.000010E+5	3.301480E+2	2.879410E+2	0.000000E+0	
-6.900000E+3	5.037663E-3	5.133001E-4	5.063746E-3	5.817932E+0	1.000010E+5	3.301480E+2	2.879400E+2	0.000000E+0	
-7.000000E+3	5.037661E-3	5.111203E-4	5.063524E-3	5.793396E+0	1.000010E+5	3.301480E+2	2.879410E+2	0.000000E+0	
-7.100000E+3	5.038105E-3	5.106891E-4	5.063922E-3	5.788036E+0	1.000010E+5	3.301480E+2	2.879500E+2	0.000000E+0	
-7.200000E+3	5.038106E-3	5.106926E-4	5.063923E-3	5.788073E+0	1.000010E+5	3.301480E+2	2.879420E+2	0.000000E+0	
-7.300000E+3	5.036356E-3	5.128859E-4	5.062404E-3	5.814768E+0	1.000010E+5	3.301480E+2	2.879440E+2	0.000000E+0	
-7.400000E+3	5.036364E-3	5.152143E-4	5.062648E-3	5.840974E+0	1.000010E+5	3.301480E+2	2.879430E+2	0.000000E+0	
-7.500000E+3	5.035035E-3	5.186315E-4	5.061675E-3	5.880985E+0	1.000010E+5	3.301480E+2	2.879410E+2	0.000000E+0	
-7.600000E+3	5.034711E-3	5.231148E-4	5.061814E-3	5.931842E+0	1.000010E+5	3.301480E+2	2.879430E+2	0.000000E+0	
-7.700000E+3	5.035913E-3	5.289627E-4	5.063617E-3	5.996252E+0	1.000010E+5	3.301480E+2	2.879400E+2	0.000000E+0	
-7.800000E+3	5.036368E-3	5.350985E-4	5.064715E-3	6.064747E+0	1.000010E+5	3.301480E+2	2.879430E+2	0.000000E+0	
-7.900000E+3	5.035015E-3	5.420952E-4	5.064114E-3	6.145082E+0	1.000010E+5	3.301480E+2	2.879480E+2	0.000000E+0	
-8.000000E+3	5.035479E-3	5.486669E-4	5.065282E-3	6.218430E+0	1.000010E+5	3.301480E+2	2.879460E+2	0.000000E+0	
-8.100000E+3	5.035901E-3	5.563897E-4	5.066544E-3	6.304732E+0	1.000010E+5	3.301480E+2	2.879450E+2	0.000000E+0	
-8.200000E+3	5.035468E-3	5.612561E-4	5.066651E-3	6.359968E+0	1.000010E+5	3.301480E+2	2.879500E+2	0.000000E+0	
-8.300000E+3	5.036766E-3	5.678292E-4	5.068672E-3	6.432189E+0	1.000010E+5	3.301480E+2	2.879470E+2	0.000000E+0	
-8.400000E+3	5.037229E-3	5.696117E-4	5.069332E-3	6.451622E+0	1.000010E+5	3.301480E+2	2.879400E+2	0.000000E+0	
-8.500000E+3	5.035918E-3	5.735708E-4	5.068476E-3	6.497759E+0	1.000010E+5	3.301480E+2	2.879390E+2	0.000000E+0	
-8.600000E+3	5.036357E-3	5.757757E-4	5.069162E-3	6.521959E+0	1.000010E+5	3.301480E+2	2.879420E+2	0.000000E+0	
-8.700000E+3	5.036357E-3	5.788160E-4	5.069509E-3	6.556097E+0	1.000010E+5	3.301480E+2	2.879460E+2	0.000000E+0	
-8.800000E+3	5.035915E-3	5.806067E-4	5.069274E-3	6.576775E+0	1.000010E+5	3.301480E+2	2.879410E+2	0.000000E+0	
-8.900000E+3	5.038109E-3	5.819052E-4	5.071603E-3	6.588509E+0	1.000010E+5	3.301480E+2	2.879420E+2	0.000000E+0	
-9.000000E+3	5.036762E-3	5.847845E-4	5.070596E-3	6.622575E+0	1.000010E+5	3.301480E+2	2.879430E+2	0.000000E+0	
-9.100000E+3	5.038114E-3	5.865585E-4	5.072144E-3	6.640720E+0	1.000010E+5	3.301480E+2	2.879490E+2	0.000000E+0	
-9.200000E+3	5.038531E-3	5.876564E-4	5.072685E-3	6.652493E+0	1.000010E+5	3.301480E+2	2.879450E+2	0.000000E+0	
-9.300000E+3	5.037230E-3	5.885929E-4	5.071501E-3	6.664706E+0	1.000010E+5	3.301480E+2	2.879490E+2	0.000000E+0	
-9.400000E+3	5.036774E-3	5.887631E-4	5.071069E-3	6.667213E+0	1.000010E+5	3.301480E+2	2.879430E+2	0.000000E+0	
-9.500000E+3	5.037663E-3	5.891991E-4	5.072002E-3	6.670938E+0	1.000010E+5	3.301480E+2	2.879420E+2	0.000000E+0	
-9.600000E+3	5.037225E-3	5.922396E-4	5.071921E-3	6.705629E+0	1.000010E+5	3.301480E+2	2.879470E+2	0.000000E+0	
-9.700000E+3	5.038111E-3	5.918012E-4	5.072749E-3	6.699543E+0	1.000010E+5	3.301480E+2	2.879520E+2	0.000000E+0	
-9.800000E+3	5.037228E-3	5.913775E-4	5.071823E-3	6.695952E+0	1.000010E+5	3.301480E+2	2.879540E+2	0.000000E+0	
-9.900000E+3	5.036365E-3	5.918004E-4	5.071016E-3	6.701835E+0	1.000010E+5	3.301480E+2	2.879390E+2	0.000000E+0	
-1.000000E+4	5.037668E-3	5.922410E-4	5.072361E-3	6.705060E+0	1.000010E+5	3.301480E+2	2.879400E+2	0.000000E+0	
-1.010000E+4	5.038979E-3	5.918095E-4	5.073613E-3	6.698491E+0	1.000010E+5	3.301480E+2	2.879550E+2	0.000000E+0	
-1.020000E+4	5.037652E-3	5.926914E-4	5.072398E-3	6.710134E+0	1.000010E+5	3.301480E+2	2.879570E+2	0.000000E+0	
-1.030000E+4	5.038249E-3	5.918346E-4	5.072891E-3	6.699736E+0	1.000010E+5	3.301480E+2	2.879490E+2	0.000000E+0	
-1.040000E+4	5.038525E-3	5.935941E-4	5.073370E-3	6.719107E+0	1.000010E+5	3.301480E+2	2.879500E+2	0.000000E+0	
-1.050000E+4	5.039415E-3	5.926931E-4	5.074149E-3	6.707827E+0	1.000010E+5	3.301480E+2	2.879520E+2	0.000000E+0	
-1.060000E+4	5.038104E-3	5.940284E-4	5.073004E-3	6.724534E+0	1.000010E+5	3.301480E+2	2.879480E+2	0.000000E+0	
-1.070000E+4	5.038098E-3	5.935851E-4	5.072946E-3	6.719570E+0	1.000010E+5	3.301480E+2	2.879920E+2	0.000000E+0	
-1.080000E+4	5.038975E-3	5.926930E-4	5.073712E-3	6.708406E+0	1.000010E+5	3.301480E+2	2.879720E+2	0.000000E+0	
-1.090000E+4	5.038537E-3	5.931241E-4	5.073327E-3	6.713819E+0	1.000010E+5	3.301480E+2	2.879440E+2	0.000000E+0	
-1.100000E+4	5.039414E-3	5.931324E-4	5.074199E-3	6.712755E+0	1.000010E+5	3.301480E+2	2.879590E+2	0.000000E+0	
